time (s)	energy (uJ)	charge (mC)	voltage (mV)	crossing#mod 255
6016.073147	75.493965	0.000386	195.740829	217
6017.108691	78.242226	0.000400	195.615082	218
6018.161352	76.786812	0.000394	194.962097	219
6019.202797	75.308388	0.000385	195.573395	220
6020.244162	75.790092	0.000387	196.005066	221
6021.286986	74.712654	0.000381	196.101227	222
6022.332617	74.990295	0.000383	195.620361	223
6023.375196	73.133614	0.000375	195.135254	224
6024.424641	71.865814	0.000367	195.984497	225
6025.461581	85.720116	0.000438	195.790955	226
6026.510876	140.559311	0.000717	196.134277	227
6027.548535	77.296425	0.000395	195.529602	228
6028.595187	79.043304	0.000404	195.661880	229
6029.637801	76.424484	0.000392	195.208923	230
6030.685369	75.242996	0.000385	195.345139	231
6031.723777	73.134758	0.000373	195.870972	232
6032.773955	74.038002	0.000379	195.147049	233
6033.813495	74.922264	0.000384	195.189774	234
6034.860548	94.544586	0.000483	195.838821	235
6035.897822	76.295959	0.000390	195.411392	236
6036.946732	74.407463	0.000380	195.967300	237
6037.984214	75.099739	0.000384	195.350861	238
6039.034785	73.199562	0.000375	195.366257	239
6040.072680	74.043732	0.000379	195.328964	240
6041.121354	72.325661	0.000370	195.319000	241
6042.161387	72.995766	0.000374	195.389053	242
6043.205080	73.615303	0.000376	195.951294	243
6044.247603	74.052376	0.000378	195.792007	244
6045.292527	74.061165	0.000379	195.611908	245
6046.333424	71.680351	0.000366	195.904785	246
6047.382284	68.384804	0.000350	195.347549	247
6048.418583	126.228477	0.000647	195.170441	248
6049.467567	69.382278	0.000355	195.576874	249
6050.501193	73.956284	0.000378	195.728439	250
6051.555019	131.754913	0.000674	195.543823	251
6052.586922	73.695541	0.000377	195.385437	252
6053.641097	68.367416	0.000349	196.048676	253
6054.671297	70.027580	0.000358	195.814041	254
6055.726601	69.762657	0.000357	195.483246	255
6056.756709	71.355766	0.000365	195.546082	0
6057.813947	66.884262	0.000342	195.428909	1
6058.844859	72.763168	0.000372	195.840927	2
6059.901029	101.170792	0.000517	195.669876	3
6060.930799	89.831482	0.000459	195.715912	4
6061.985087	63.074932	0.000322	195.756378	5
6063.018440	66.223625	0.000339	195.260864	6
6064.069314	63.641117	0.000325	195.688446	7
6065.102625	66.166519	0.000339	195.427704	8
6066.154655	62.377773	0.000319	195.314178	9
6067.187056	67.966888	0.000347	195.877609	10
6068.239218	62.281609	0.000319	195.347672	11
6069.274221	64.233246	0.000328	195.926376	12
6070.326079	62.524792	0.000321	195.066437	13
6071.360051	64.270370	0.000328	195.966370	14
6072.409342	60.286766	0.000309	195.276291	15
6073.447017	61.303265	0.000313	195.660522	16
6074.496619	87.717003	0.000450	195.013123	17
6075.532344	63.746655	0.000326	195.377441	18
6076.581946	59.878876	0.000306	195.448547	19
6077.616270	61.156395	0.000313	195.337875	20
6078.667184	57.661301	0.000295	195.660202	21
6079.699317	75.175102	0.000383	196.053055	22
6080.753123	57.150734	0.000292	195.490372	23
6081.782996	62.415268	0.000319	195.471497	24
6082.839018	56.945572	0.000291	195.406281	25
6083.868952	120.471916	0.000616	195.493530	26
6084.922878	56.374264	0.000288	195.633041	27
6085.953402	58.970634	0.000302	195.402176	28
6087.009409	55.038387	0.000281	195.524628	29
6088.040097	83.987602	0.000429	195.659317	30
6089.094249	54.195786	0.000277	195.434357	31
6090.125750	56.056965	0.000287	195.473602	32
6091.178172	53.273033	0.000272	196.176270	33
6092.212292	57.281860	0.000293	195.441757	34
6093.263930	49.481083	0.000253	195.328522	35
6094.298200	58.249599	0.000299	195.093155	36
6095.347728	49.855736	0.000255	195.448090	37
6096.383773	55.340794	0.000284	195.170609	38
6097.430829	49.173717	0.000251	196.057571	39
6098.468792	55.092045	0.000282	195.335144	40
6099.514212	58.784016	0.000300	195.840927	41
6100.551708	57.079117	0.000292	195.628220	42
6101.598549	48.590931	0.000248	195.757446	43
6102.636769	54.765072	0.000280	195.694626	44
6103.684928	48.651112	0.000249	195.025070	45
6104.723079	52.846191	0.000270	195.569931	46
6105.767703	48.517746	0.000248	195.658249	47
6106.811384	50.915760	0.000261	194.785294	48
6107.850986	51.897114	0.000265	196.047012	49
6108.894238	49.959373	0.000256	195.344070	50
6109.938946	48.481846	0.000249	194.914993	51
6110.978114	49.864857	0.000255	195.335144	52
6112.021643	47.936272	0.000245	195.897400	53
6113.062180	65.490173	0.000334	195.798355	54
6114.105933	75.133827	0.000384	195.695831	55
6115.145926	49.304821	0.000252	195.849838	56
6116.189697	46.063370	0.000235	195.876114	57
6117.231359	49.575878	0.000254	195.450348	58
6118.275278	47.217133	0.000242	195.480850	59
6119.316010	47.419540	0.000242	195.763184	60
6120.360076	68.026581	0.000348	195.636810	61
6121.400666	50.935177	0.000261	195.390121	62
6122.446118	44.003788	0.000225	195.178909	63
6123.482209	48.219139	0.000247	195.407639	64
6124.532435	42.945114	0.000220	195.561630	65
6125.567030	50.904755	0.000261	195.142517	66
6126.616659	43.853016	0.000224	195.579453	67
6127.648800	48.816319	0.000250	195.382568	68
6128.703610	44.031849	0.000225	195.311005	69
6129.732596	46.738056	0.000239	195.902069	70
6130.786822	42.670254	0.000218	195.951294	71
6131.817463	51.418953	0.000263	195.585480	72
6132.870848	45.822674	0.000234	195.640732	73
6133.901308	45.100456	0.000230	195.983887	74
6134.956945	42.621307	0.000218	195.702637	75
6135.988594	44.232464	0.000227	195.077133	76
6137.039791	42.089462	0.000215	195.424988	77
6138.072413	46.280399	0.000237	195.347397	78
6139.124894	42.364540	0.000217	195.485382	79
6140.158038	44.182671	0.000226	195.514679	80
6141.209663	39.799633	0.000204	195.545319	81
6142.243901	91.016373	0.000466	195.130280	82
6143.293418	42.330978	0.000216	195.568253	83
6144.326490	43.428665	0.000222	195.400818	84
6145.377161	40.422482	0.000207	195.465775	85
