time (s)	energy (uJ)	charge (mC)	voltage (mV)	crossing#mod 255
6664.633157	108.991669	0.000390	279.634979	54
6665.693386	116.447495	0.000417	279.441010	55
6666.717242	111.531723	0.000399	279.466064	56
6667.780557	117.236511	0.000420	279.067322	57
6668.804238	108.354660	0.000388	279.012390	58
6669.865338	135.699112	0.000486	279.010101	59
6670.892703	114.181114	0.000409	279.028992	60
6671.948148	125.313423	0.000448	279.461243	61
6672.983056	122.192177	0.000438	279.035614	62
6674.036369	134.555893	0.000482	279.293060	63
6675.071038	236.305573	0.000846	279.354950	64
6676.122238	210.349442	0.000754	278.863953	65
6677.155667	143.523132	0.000514	279.365509	66
6678.207552	151.611206	0.000544	278.519135	67
6679.245975	144.805054	0.000520	278.463745	68
6680.291392	154.533646	0.000553	279.208649	69
6681.333790	148.522232	0.000532	279.225403	70
6682.377405	159.164108	0.000570	279.057068	71
6683.421709	158.501862	0.000568	279.246521	72
6684.465591	167.493912	0.000601	278.471741	73
6685.505934	162.088684	0.000580	279.251953	74
6686.554061	171.568619	0.000616	278.529236	75
6687.591930	165.836304	0.000594	279.172882	76
6688.639738	176.569489	0.000634	278.705750	77
6689.679086	170.830994	0.000612	279.160950	78
6690.725005	184.836960	0.000663	278.838165	79
6691.767980	178.194534	0.000638	279.221649	80
6692.811395	188.950089	0.000678	278.796173	81
6693.854678	183.165497	0.000656	279.234314	82
6694.896386	193.272446	0.000692	279.448090	83
6695.940461	189.045639	0.000678	278.892029	84
6696.984197	197.612198	0.000708	278.961945	85
6698.024589	197.235580	0.000706	279.301056	86
6699.072229	199.802261	0.000717	278.756470	87
6700.110345	200.567291	0.000719	278.844330	88
6701.159565	204.317932	0.000734	278.241943	89
6702.196706	204.020004	0.000731	279.132568	90
6703.246001	213.790054	0.000767	278.731262	91
6704.283410	202.770630	0.000729	278.191376	92
6705.332711	208.577072	0.000747	279.052826	93
6706.369100	201.255966	0.000722	278.648804	94
6707.419934	206.958252	0.000742	278.860931	95
6708.453458	206.714325	0.000740	279.157135	96
6709.505953	208.188797	0.000747	278.622864	97
6710.539999	207.288269	0.000744	278.772644	98
6711.592394	222.874435	0.000798	279.258453	99
6712.625793	211.429123	0.000758	278.865021	100
6713.678837	207.564957	0.000744	278.841766	101
6714.711808	209.522934	0.000752	278.698212	102
6715.763268	203.245926	0.000730	278.609436	103
6716.796503	212.939316	0.000763	279.020996	104
6717.848003	211.548798	0.000759	278.742096	105
6718.884113	211.733505	0.000760	278.543152	106
6719.933725	204.340546	0.000733	278.702118	107
6720.969847	207.762833	0.000745	278.860352	108
6722.017900	205.421600	0.000736	279.228424	109
6723.055601	211.348953	0.000757	279.020203	110
6724.103577	215.968552	0.000775	278.787842	111
6725.142620	224.845184	0.000807	278.639008	112
6726.188416	201.550797	0.000722	279.078217	113
6727.228397	204.272873	0.000731	279.379089	114
6728.275495	197.591797	0.000709	278.783508	115
6729.314215	257.943909	0.000925	278.734558	116
6730.360235	194.598404	0.000697	279.224335	117
6731.400218	195.366058	0.000702	278.204498	118
6732.446774	189.488922	0.000680	278.679504	119
6733.482978	197.744781	0.000707	279.823242	120
6734.533662	185.582703	0.000667	278.249634	121
6735.569707	190.966309	0.000685	278.699554	122
6736.616940	195.503204	0.000701	279.064453	123
6737.652508	194.941711	0.000698	279.195068	124
6738.705648	184.513885	0.000664	278.050354	125
6739.739405	185.106720	0.000664	278.636322	126
6740.789623	177.704880	0.000637	278.761597	127
6741.824545	193.847107	0.000696	278.547211	128
6742.874326	176.150970	0.000631	279.051941	129
6743.909592	186.177963	0.000667	279.112488	130
6744.959111	174.452484	0.000625	279.193390	131
6745.995163	182.965057	0.000656	279.114288	132
6747.043996	173.281311	0.000621	278.821381	133
6748.080104	186.557983	0.000670	278.468994	134
6749.127240	169.725494	0.000609	278.921326	135
6750.165963	178.328003	0.000640	278.673279	136
6751.212384	167.664581	0.000601	279.097534	137
6752.251571	182.532730	0.000656	278.436249	138
6753.297912	161.937759	0.000581	278.517151	139
6754.335978	177.457535	0.000636	278.970093	140
6755.381790	159.874969	0.000574	278.690521	141
6756.422281	171.693939	0.000616	278.865784	142
6757.468196	161.314316	0.000579	278.479126	143
6758.507578	175.081863	0.000628	278.664215	144
6759.552445	153.465286	0.000552	278.165558	145
6760.592407	170.205795	0.000610	278.933258	146
6761.635715	156.625595	0.000561	278.969788	147
6762.678960	162.881409	0.000584	278.689728	148
6763.722125	149.556320	0.000537	278.676147	149
6764.763908	162.840652	0.000585	278.520935	150
6765.806491	152.824539	0.000548	279.074860	151
6766.848066	159.271072	0.000571	278.875885	152
6767.891733	146.797272	0.000527	278.585999	153
6768.933220	169.410522	0.000608	278.647614	154
6769.977743	149.564362	0.000537	278.599915	155
6771.017727	154.360413	0.000554	278.555939	156
6772.062307	144.441788	0.000518	278.838287	157
6773.102351	165.002670	0.000591	279.067780	158
6774.148539	139.388214	0.000500	278.577698	159
6775.188301	186.422287	0.000669	278.513245	160
6776.233877	175.024139	0.000628	278.527740	161
6777.273285	158.016418	0.000568	278.306396	162
6778.318199	137.774933	0.000494	278.639923	163
6779.356333	150.343704	0.000539	278.919800	164
6780.404659	134.980835	0.000484	279.049500	165
6781.441914	148.675903	0.000534	278.564117	166
6782.490904	190.186615	0.000684	278.032104	167
6783.527510	138.953979	0.000499	278.601288	168
6784.575706	130.584290	0.000469	278.563812	169
6785.611507	139.238571	0.000499	278.898865	170
6786.659714	130.551834	0.000468	278.954254	171
6787.698685	138.648315	0.000498	278.347137	172
6788.747393	125.490524	0.000451	278.176422	173
6789.782184	150.531723	0.000540	278.552063	174
6790.830855	122.652260	0.000440	278.604889	175
6791.866060	147.956070	0.000530	279.221313	176
6792.916469	145.587708	0.000523	278.132629	177
6793.952780	131.704941	0.000473	278.422089	178
6794.999932	122.612587	0.000440	278.530151	179
6796.038555	136.498947	0.000490	278.447998	180
6797.085029	126.137009	0.000452	278.950928	181
6798.125226	132.044357	0.000475	277.722900	182
6799.169952	125.868347	0.000451	279.055237	183
6800.208966	259.273987	0.000929	279.206360	184
6801.256287	121.362816	0.000435	278.792847	185
6802.294059	125.050125	0.000449	278.502838	186
6803.341716	123.557236	0.000443	278.723877	187
6804.378529	228.735489	0.000820	278.866852	188
6805.427031	119.790222	0.000430	278.348969	189
6806.465311	123.463142	0.000443	278.729889	190
6807.512154	116.814095	0.000419	278.725067	191
6808.551307	208.761597	0.000750	278.400299	192
6809.598059	121.373459	0.000436	278.664673	193
6810.634492	151.531403	0.000544	278.418274	194
6811.683677	115.694969	0.000415	279.036682	195
6812.718850	123.842308	0.000444	279.028687	196
6813.769675	116.113197	0.000417	278.432648	197
6814.804929	120.249092	0.000432	278.473846	198
6815.854067	115.748024	0.000416	278.382507	199
6816.891100	122.594719	0.000440	278.514008	200
6817.938536	109.704941	0.000394	278.578461	201
6818.976057	122.542816	0.000440	278.387360	202
6820.023892	109.004791	0.000391	278.812317	203
6821.060738	119.707901	0.000429	279.059479	204
6822.109081	108.031227	0.000388	278.707397	205
6823.147272	128.875046	0.000464	278.038391	206
6824.193718	108.055061	0.000387	278.864441	207
6825.232243	117.621307	0.000422	278.971619	208
6826.278760	107.760727	0.000386	278.865631	209
6827.318711	127.458206	0.000458	278.517639	210
6828.364294	102.232361	0.000367	278.594788	211
6829.403029	116.921730	0.000419	278.828064	212
6830.448785	105.132240	0.000376	279.372894	213
6831.489210	113.422951	0.000407	278.661987	214
6832.534180	112.873665	0.000405	278.409668	215
6833.574109	150.098389	0.000539	278.388977	216
6834.619231	104.067139	0.000373	278.722504	217
6835.659319	112.578598	0.000404	278.866241	218
6836.704965	106.107849	0.000381	278.417084	219
6837.745539	114.300537	0.000411	278.359100	220
6838.789031	110.412560	0.000396	279.015533	221
6839.830325	142.349182	0.000511	278.434875	222
